Data from paracetamol_Absorbance_14-54-30-441.txt Node
Date: Thu Feb 15 14:54:30 GMT 2018
User: darren.whitaker
Spectrometer: S03056
Trigger mode: 0
Resolution mode: 1024 pixels
Integration Time (sec): 1.000000E0
Scans to average: 1
Nonlinearity correction enabled: false
Boxcar width: 0
Baseline correction enabled: true
XAxis mode: Wavelengths
Number of Pixels in Spectrum: 1024
>>>>>Begin Spectral Data<<<<<
184.595	-0
185.045	0.02
185.495	0.14
185.945	0.07
186.395	0.05
186.845	0.09
187.295	-0
187.745	0.07
188.195	0.11
188.646	0.03
189.096	-0.02
189.546	0.05
189.997	0.06
190.447	0.06
190.898	0.02
191.348	0.09
191.799	0.11
192.249	0.05
192.7	-0
193.151	0.14
193.602	0.11
194.053	0.04
194.504	0.02
194.955	0.11
195.406	0.13
195.857	0.15
196.308	0.07
196.759	0.05
197.21	-0.02
197.662	0.11
198.113	0.09
198.564	0.09
199.016	0.03
199.467	0.06
199.919	0.05
200.371	0.1
200.822	0.12
201.274	-0.02
201.726	0.13
202.178	0.06
202.63	0.11
203.082	0.09
203.534	0.08
203.986	0.03
204.438	0.13
204.89	0.15
205.342	0.14
205.794	0.06
206.247	0.12
206.699	0.04
207.152	0.11
207.604	0.11
208.057	0.15
208.509	0.11
208.962	0.13
209.415	0.16
209.867	0.15
210.32	0.09
210.773	0.08
211.226	0.08
211.679	0.12
212.132	0.12
212.585	0.18
213.038	0.14
213.491	0.1
213.944	0.12
214.398	0.19
214.851	0.17
215.304	0.14
215.758	0.14
216.211	0.14
216.665	0.14
217.119	0.12
217.572	0.15
218.026	0.17
218.48	0.18
218.933	0.17
219.387	0.17
219.841	0.16
220.295	0.17
220.749	0.2
221.203	0.18
221.657	0.18
222.112	0.2
222.566	0.2
223.02	0.21
223.474	0.23
223.929	0.2
224.383	0.2
224.838	0.22
225.292	0.24
225.747	0.25
226.202	0.24
226.656	0.26
227.111	0.25
227.566	0.26
228.021	0.27
228.476	0.26
228.931	0.27
229.386	0.27
229.841	0.29
230.296	0.3
230.751	0.28
231.206	0.3
231.661	0.31
232.117	0.3
232.572	0.31
233.027	0.32
233.483	0.32
233.938	0.31
234.394	0.33
234.85	0.33
235.305	0.34
235.761	0.33
236.217	0.34
236.673	0.35
237.129	0.35
237.585	0.35
238.041	0.35
238.497	0.36
238.953	0.36
239.409	0.37
239.865	0.36
240.321	0.37
240.778	0.37
241.234	0.37
241.69	0.38
242.147	0.38
242.603	0.38
243.06	0.38
243.517	0.38
243.973	0.38
244.43	0.37
244.887	0.38
245.343	0.38
245.8	0.38
246.257	0.37
246.714	0.37
247.171	0.38
247.628	0.38
248.085	0.37
248.543	0.37
249	0.36
249.457	0.36
249.914	0.36
250.372	0.35
250.829	0.35
251.287	0.35
251.744	0.34
252.202	0.34
252.659	0.34
253.117	0.33
253.575	0.32
254.033	0.32
254.491	0.32
254.948	0.31
255.406	0.3
255.864	0.29
256.322	0.29
256.78	0.28
257.239	0.28
257.697	0.27
258.155	0.27
258.613	0.26
259.072	0.25
259.53	0.25
259.988	0.24
260.447	0.24
260.906	0.23
261.364	0.23
261.823	0.22
262.281	0.21
262.74	0.2
263.199	0.2
263.658	0.2
264.117	0.19
264.576	0.18
265.035	0.18
265.494	0.17
265.953	0.17
266.412	0.16
266.871	0.16
267.33	0.15
267.79	0.15
268.249	0.15
268.708	0.14
269.168	0.14
269.627	0.14
270.087	0.13
270.546	0.13
271.006	0.12
271.466	0.12
271.926	0.12
272.385	0.12
272.845	0.12
273.305	0.12
273.765	0.11
274.225	0.11
274.685	0.11
275.145	0.11
275.605	0.11
276.065	0.1
276.526	0.1
276.986	0.11
277.446	0.1
277.907	0.1
278.367	0.1
278.828	0.1
279.288	0.1
279.749	0.1
280.209	0.09
280.67	0.09
281.131	0.09
281.592	0.09
282.052	0.09
282.513	0.09
282.974	0.09
283.435	0.08
283.896	0.08
284.357	0.08
284.818	0.08
285.28	0.08
285.741	0.08
286.202	0.08
286.663	0.08
287.125	0.07
287.586	0.07
288.048	0.07
288.509	0.07
288.971	0.07
289.432	0.06
289.894	0.06
290.356	0.06
290.818	0.06
291.279	0.06
291.741	0.05
292.203	0.05
292.665	0.05
293.127	0.05
293.589	0.05
294.051	0.05
294.513	0.04
294.976	0.05
295.438	0.04
295.9	0.04
296.363	0.04
296.825	0.04
297.287	0.04
297.75	0.04
298.212	0.03
298.675	0.03
299.138	0.03
299.6	0.03
300.063	0.03
300.526	0.03
300.989	0.03
301.452	0.02
301.914	0.02
302.377	0.02
302.84	0.02
303.304	0.02
303.767	0.02
304.23	0.02
304.693	0.02
305.156	0.02
305.62	0.02
306.083	0.02
306.546	0.02
307.01	0.02
307.473	0.02
307.937	0.02
308.4	0.01
308.864	0.02
309.328	0.01
309.792	0.02
310.255	0.01
310.719	0.02
311.183	0.02
311.647	0.02
312.111	0.02
312.575	0.01
313.039	0.02
313.503	0.02
313.967	0.02
314.432	0.01
314.896	0.02
315.36	0.02
315.825	0.02
316.289	0.02
316.753	0.02
317.218	0.02
317.683	0.02
318.147	0.02
318.612	0.02
319.076	0.02
319.541	0.02
320.006	0.02
320.471	0.01
320.936	0.02
321.401	0.02
321.866	0.02
322.331	0.02
322.796	0.01
323.261	0.02
323.726	0.01
324.191	0.01
324.656	0.02
325.122	0.02
325.587	0.02
326.053	0.02
326.518	0.01
326.983	0.02
327.449	0.02
327.915	0.02
328.38	0.02
328.846	0.01
329.312	0.02
329.777	0.02
330.243	0.02
330.709	0.02
331.175	0.02
331.641	0.02
332.107	0.02
332.573	0.02
333.039	0.02
333.505	0.02
333.972	0.02
334.438	0.02
334.904	0.02
335.37	0.02
335.837	0.02
336.303	0.02
336.77	0.02
337.236	0.02
337.703	0.02
338.169	0.02
338.636	0.02
339.103	0.02
339.569	0.02
340.036	0.02
340.503	0.02
340.97	0.02
341.437	0.02
341.904	0.02
342.371	0.02
342.838	0.02
343.305	0.02
343.772	0.02
344.24	0.02
344.707	0.02
345.174	0.02
345.641	0.01
346.109	0.02
346.576	0.02
347.044	0.02
347.511	0.02
347.979	0.02
348.447	0.02
348.914	0.02
349.382	0.02
349.85	0.02
350.318	0.02
350.785	0.02
351.253	0.02
351.721	0.02
352.189	0.02
352.657	0.02
353.125	0.02
353.594	0.02
354.062	0.02
354.53	0.02
354.998	0.02
355.466	0.02
355.935	0.02
356.403	0.02
356.872	0.02
357.34	0.02
357.809	0.02
358.277	0.02
358.746	0.02
359.215	0.02
359.683	0.02
360.152	0.02
360.621	0.02
361.09	0.02
361.559	0.02
362.028	0.02
362.497	0.02
362.966	0.02
363.435	0.02
363.904	0.02
364.373	0.02
364.842	0.02
365.312	0.02
365.781	0.02
366.25	0.02
366.72	0.02
367.189	0.02
367.658	0.02
368.128	0.02
368.598	0.02
369.067	0.02
369.537	0.02
370.007	0.02
370.476	0.02
370.946	0.02
371.416	0.02
371.886	0.02
372.356	0.02
372.826	0.02
373.296	0.02
373.766	0.02
374.236	0.02
374.706	0.02
375.176	0.02
375.647	0.02
376.117	0.02
376.587	0.02
377.058	0.02
377.528	0.02
377.998	0.02
378.469	0.02
378.94	0.02
379.41	0.02
379.881	0.02
380.351	0.02
380.822	0.02
381.293	0.02
381.764	0.02
382.235	0.02
382.706	0.02
383.177	0.02
383.648	0.02
384.119	0.02
384.59	0.02
385.061	0.02
385.532	0.02
386.003	0.02
386.474	0.02
386.946	0.02
387.417	0.02
387.888	0.02
388.36	0.02
388.831	0.02
389.303	0.02
389.774	0.02
390.246	0.02
390.718	0.02
391.189	0.02
391.661	0.02
392.133	0.02
392.605	0.02
393.077	0.02
393.549	0.02
394.021	0.02
394.493	0.02
394.965	0.02
395.437	0.02
395.909	0.02
396.381	0.02
396.853	0.02
397.325	0.02
397.798	0.02
398.27	0.02
398.743	0.02
399.215	0.02
399.687	0.02
400.16	0.02
400.633	0.02
401.105	0.02
401.578	0.02
402.051	0.02
402.523	0.02
402.996	0.02
403.469	0.02
403.942	0.02
404.415	0.02
404.888	0.02
405.361	0.02
405.834	0.02
406.307	0.02
406.78	0.02
407.253	0.02
407.726	0.02
408.199	0.02
408.673	0.02
409.146	0.02
409.619	0.02
410.093	0.02
410.566	0.02
411.04	0.02
411.513	0.02
411.987	0.02
412.461	0.02
412.934	0.02
413.408	0.02
413.882	0.02
414.356	0.02
414.829	0.02
415.303	0.02
415.777	0.02
416.251	0.02
416.725	0.02
417.199	0.02
417.673	0.02
418.148	0.02
418.622	0.02
419.096	0.02
419.57	0.02
420.045	0.02
420.519	0.02
420.993	0.02
421.468	0.02
421.942	0.02
422.417	0.02
422.891	0.02
423.366	0.02
423.841	0.02
424.315	0.02
424.79	0.02
425.265	0.02
425.74	0.02
426.215	0.02
426.689	0.02
427.164	0.02
427.639	0.02
428.114	0.02
428.589	0.02
429.065	0.02
429.54	0.02
430.015	0.02
430.49	0.02
430.965	0.02
431.441	0.02
431.916	0.02
432.392	0.02
432.867	0.02
433.342	0.02
433.818	0.02
434.294	0.02
434.769	0.02
435.245	0.02
435.721	0.02
436.196	0.02
436.672	0.02
437.148	0.02
437.624	0.02
438.1	0.02
438.576	0.02
439.052	0.02
439.528	0.02
440.004	0.02
440.48	0.02
440.956	0.02
441.432	0.02
441.908	0.03
442.385	0.02
442.861	0.03
443.337	0.02
443.814	0.03
444.29	0.02
444.767	0.02
445.243	0.03
445.72	0.02
446.196	0.02
446.673	0.02
447.15	0.02
447.626	0.02
448.103	0.02
448.58	0.02
449.057	0.02
449.534	0.02
450.01	0.03
450.487	0.02
450.964	0.03
451.442	0.03
451.919	0.03
452.396	0.02
452.873	0.02
453.35	0.03
453.827	0.03
454.305	0.03
454.782	0.02
455.259	0.03
455.737	0.03
456.214	0.03
456.692	0.03
457.169	0.03
457.647	0.03
458.124	0.02
458.602	0.03
459.08	0.03
459.557	0.03
460.035	0.03
460.513	0.03
460.991	0.03
461.469	0.03
461.947	0.03
462.425	0.03
462.903	0.02
463.381	0.03
463.859	0.03
464.337	0.03
464.815	0.02
465.293	0.02
465.772	0.03
466.25	0.03
466.728	0.03
467.207	0.03
467.685	0.03
468.164	0.03
468.642	0.03
469.121	0.03
469.599	0.03
470.078	0.03
470.556	0.03
471.035	0.03
471.514	0.03
471.993	0.03
472.471	0.03
472.95	0.03
473.429	0.03
473.908	0.03
474.387	0.03
474.866	0.03
475.345	0.03
475.824	0.03
476.303	0.03
476.782	0.03
477.262	0.03
477.741	0.03
478.22	0.03
478.7	0.03
479.179	0.03
479.658	0.03
480.138	0.03
480.617	0.03
481.097	0.03
481.576	0.03
482.056	0.03
482.535	0.03
483.015	0.03
483.495	0.03
483.975	0.03
484.454	0.03
484.934	0.03
485.414	0.03
485.894	0.03
486.374	0.03
486.854	0.03
487.334	0.03
487.814	0.03
488.294	0.03
488.774	0.03
489.254	0.03
489.735	0.03
490.215	0.03
490.695	0.03
491.176	0.03
491.656	0.03
492.136	0.03
492.617	0.03
493.097	0.03
493.578	0.03
494.058	0.03
494.539	0.03
495.02	0.03
495.5	0.03
495.981	0.03
496.462	0.03
496.943	0.03
497.423	0.03
497.904	0.03
498.385	0.03
498.866	0.03
499.347	0.03
499.828	0.03
500.309	0.03
500.79	0.03
501.271	0.03
501.753	0.03
502.234	0.03
502.715	0.03
503.196	0.03
503.678	0.03
504.159	0.03
504.64	0.03
505.122	0.03
505.603	0.03
506.085	0.03
506.566	0.03
507.048	0.03
507.53	0.03
508.011	0.03
508.493	0.03
508.975	0.03
509.457	0.03
509.938	0.03
510.42	0.03
510.902	0.03
511.384	0.03
511.866	0.03
512.348	0.03
512.83	0.03
513.312	0.03
513.794	0.03
514.276	0.03
514.759	0.03
515.241	0.03
515.723	0.03
516.206	0.03
516.688	0.03
517.17	0.03
517.653	0.03
518.135	0.03
518.618	0.03
519.1	0.03
519.583	0.03
520.065	0.03
520.548	0.03
521.031	0.03
521.513	0.03
521.996	0.03
522.479	0.03
522.962	0.03
523.445	0.03
523.927	0.03
524.41	0.03
524.893	0.03
525.376	0.03
525.859	0.03
526.343	0.03
526.826	0.03
527.309	0.03
527.792	0.03
528.275	0.03
528.759	0.03
529.242	0.03
529.725	0.03
530.209	0.03
530.692	0.03
531.175	0.03
531.659	0.03
532.142	0.03
532.626	0.03
533.11	0.03
533.593	0.03
534.077	0.03
534.561	0.03
535.044	0.03
535.528	0.03
536.012	0.03
536.496	0.03
536.98	0.03
537.464	0.03
537.948	0.03
538.432	0.03
538.916	0.03
539.4	0.03
539.884	0.03
540.368	0.03
540.852	0.03
541.336	0.03
541.821	0.03
542.305	0.03
542.789	0.03
543.274	0.03
543.758	0.03
544.243	0.03
544.727	0.03
545.211	0.03
545.696	0.03
546.181	0.03
546.665	0.03
547.15	0.03
547.635	0.03
548.119	0.03
548.604	0.03
549.089	0.03
549.574	0.03
550.059	0.03
550.543	0.03
551.028	0.03
551.513	0.03
551.998	0.03
552.483	0.03
552.968	0.03
553.454	0.03
553.939	0.03
554.424	0.03
554.909	0.03
555.394	0.03
555.88	0.03
556.365	0.03
556.85	0.03
557.336	0.03
557.821	0.03
558.307	0.03
558.792	0.03
559.278	0.03
559.763	0.03
560.249	0.03
560.735	0.03
561.22	0.03
561.706	0.03
562.192	0.03
562.677	0.03
563.163	0.03
563.649	0.03
564.135	0.03
564.621	0.03
565.107	0.03
565.593	0.03
566.079	0.03
566.565	0.03
567.051	0.03
567.537	0.03
568.023	0.03
568.51	0.03
568.996	0.03
569.482	0.03
569.968	0.03
570.455	0.03
570.941	0.03
571.428	0.03
571.914	0.03
572.4	0.03
572.887	0.03
573.374	0.03
573.86	0.03
574.347	0.03
574.833	0.03
575.32	0.03
575.807	0.03
576.294	0.03
576.78	0.03
577.267	0.03
577.754	0.03
578.241	0.03
578.728	0.03
579.215	0.03
579.702	0.03
580.189	0.03
580.676	0.03
581.163	0.03
581.65	0.03
582.137	0.03
582.625	0.03
583.112	0.03
583.599	0.03
584.086	0.03
584.574	0.03
585.061	0.03
585.548	0.03
586.036	0.03
586.523	0.03
587.011	0.03
587.498	0.03
587.986	0.03
588.474	0.03
588.961	0.03
589.449	0.03
589.937	0.03
590.424	0.03
590.912	0.03
591.4	0.04
591.888	0.03
592.376	0.03
592.864	0.03
593.352	0.03
593.84	0.03
594.328	0.03
594.816	0.03
595.304	0.03
595.792	0.03
596.28	0.03
596.768	0.03
597.256	0.03
597.745	0.03
598.233	0.03
598.721	0.03
599.209	0.03
599.698	0.04
600.186	0.03
600.675	0.03
601.163	0.03
601.652	0.04
602.14	0.03
602.629	0.03
603.117	0.03
603.606	0.03
604.095	0.03
604.583	0.03
605.072	0.03
605.561	0.03
606.05	0.03
606.539	0.04
607.028	0.03
607.516	0.03
608.005	0.03
608.494	0.03
608.983	0.03
609.472	0.03
609.961	0.03
610.451	0.03
610.94	0.03
611.429	0.03
611.918	0.03
612.407	0.03
612.897	0.03
613.386	0.03
613.875	0.03
614.365	0.03
614.854	0.03
615.343	0.03
615.833	0.03
616.322	0.04
616.812	0.03
617.301	0.03
617.791	0.04
618.281	0.03
618.77	0.03
619.26	0.03
619.75	0.03
620.24	0.04
620.729	0.03
621.219	0.03
621.709	0.03
622.199	0.03
622.689	0.03
623.179	0.03
623.669	0.03
624.159	0.04
624.649	0.03
625.139	0.03
625.629	0.03
626.119	0.04
626.609	0.03
627.099	0.03
627.59	0.03
628.08	0.03
628.57	0.03
629.061	0.03
629.551	0.03
630.041	0.03
630.532	0.04
631.022	0.03
631.513	0.03
632.003	0.03
632.494	0.04
632.984	0.03
633.475	0.03
633.966	0.03
634.456	0.03
634.947	0.03
635.438	0.04
635.929	0.03
636.419	0.03
636.91	0.03
637.401	0.03
637.892	0.03
638.383	0.03
638.874	0.03
639.365	0.03
639.856	0.03
640.347	0.03
640.838	0.03
641.329	0.03
641.82	0.03
642.311	0.03
642.803	0.03
643.294	0.03
643.785	0.03
644.277	0.03
644.768	0.03
645.259	0.03
645.751	0.03
646.242	0.03
646.734	0.03
647.225	0.03
647.717	0.03
648.208	0.03
648.7	0.04
649.191	0.03
649.683	0.03
650.175	0.03
650.666	0.04
651.158	0.04
651.65	0.03
652.142	0.03
652.633	0.03
653.125	0.03
653.617	0.03
654.109	0.03
654.601	0.03
655.093	0.04
655.585	0.04
656.077	0.03
656.569	0.04
657.061	0.04
657.553	0.04
658.046	0.04
658.538	0.04
659.03	0.04
659.522	0.03
660.015	0.03
660.507	0.03
660.999	0.03
661.492	0.03
661.984	0.03
662.476	0.03
662.969	0.03
663.461	0.04
663.954	0.03
664.446	0.03
664.939	0.03
665.432	0.03
665.924	0.03
666.417	0.03
666.91	0.03
667.402	0.03
667.895	0.03
668.388	0.03
668.881	0.03
