Data from paracetamol_Absorbance_14-53-55-207.txt Node
Date: Thu Feb 15 14:53:55 GMT 2018
User: darren.whitaker
Spectrometer: S03056
Trigger mode: 0
Resolution mode: 1024 pixels
Integration Time (sec): 1.000000E0
Scans to average: 1
Nonlinearity correction enabled: false
Boxcar width: 0
Baseline correction enabled: true
XAxis mode: Wavelengths
Number of Pixels in Spectrum: 1024
>>>>>Begin Spectral Data<<<<<
184.595	0.38
185.045	0.41
185.495	0.41
185.945	0.32
186.395	0.35
186.845	0.42
187.295	0.42
187.745	0.35
188.195	0.23
188.646	0.33
189.096	0.24
189.546	0.93
189.997	0.28
190.447	0.25
190.898	0.37
191.348	0.74
191.799	0.37
192.249	0.1
192.7	0.34
193.151	0.37
193.602	0.36
194.053	0.19
194.504	0.32
194.955	0.39
195.406	0.48
195.857	0.43
196.308	0.34
196.759	0.39
197.21	0.26
197.662	0.25
198.113	0.44
198.564	0.24
199.016	0.45
199.467	0.42
199.919	0.32
200.371	0.33
200.822	0.4
201.274	0.36
201.726	0.39
202.178	0.22
202.63	0.37
203.082	0.39
203.534	0.24
203.986	0.36
204.438	0.33
204.89	0.59
205.342	0.36
205.794	0.4
206.247	0.31
206.699	0.35
207.152	0.6
207.604	0.5
208.057	0.41
208.509	0.38
208.962	0.46
209.415	0.55
209.867	0.39
210.32	0.5
210.773	0.53
211.226	0.46
211.679	0.51
212.132	0.36
212.585	0.58
213.038	0.53
213.491	0.61
213.944	0.59
214.398	0.56
214.851	0.53
215.304	0.56
215.758	0.71
216.211	0.7
216.665	0.59
217.119	0.62
217.572	0.69
218.026	0.74
218.48	0.69
218.933	0.7
219.387	0.76
219.841	0.7
220.295	0.69
220.749	0.82
221.203	0.78
221.657	0.71
222.112	0.72
222.566	0.76
223.02	0.81
223.474	0.91
223.929	0.78
224.383	0.9
224.838	0.83
225.292	0.96
225.747	1
226.202	0.79
226.656	0.94
227.111	0.88
227.566	0.88
228.021	0.92
228.476	0.91
228.931	0.89
229.386	1
229.841	0.95
230.296	0.95
230.751	0.96
231.206	1
231.661	0.94
232.117	0.98
232.572	1.02
233.027	1.06
233.483	0.97
233.938	1.01
234.394	1.1
234.85	1.02
235.305	1.04
235.761	1.09
236.217	1.1
236.673	1.07
237.129	1.14
237.585	1.16
238.041	1.17
238.497	1.12
238.953	1.13
239.409	1.2
239.865	1.18
240.321	1.15
240.778	1.19
241.234	1.2
241.69	1.22
242.147	1.17
242.603	1.24
243.06	1.23
243.517	1.28
243.973	1.32
244.43	1.27
244.887	1.25
245.343	1.28
245.8	1.28
246.257	1.28
246.714	1.29
247.171	1.27
247.628	1.35
248.085	1.32
248.543	1.33
249	1.33
249.457	1.33
249.914	1.33
250.372	1.3
250.829	1.33
251.287	1.34
251.744	1.34
252.202	1.33
252.659	1.33
253.117	1.33
253.575	1.35
254.033	1.33
254.491	1.34
254.948	1.33
255.406	1.37
255.864	1.34
256.322	1.38
256.78	1.35
257.239	1.32
257.697	1.34
258.155	1.35
258.613	1.33
259.072	1.34
259.53	1.3
259.988	1.35
260.447	1.31
260.906	1.31
261.364	1.33
261.823	1.3
262.281	1.31
262.74	1.29
263.199	1.28
263.658	1.28
264.117	1.26
264.576	1.26
265.035	1.25
265.494	1.26
265.953	1.22
266.412	1.21
266.871	1.19
267.33	1.2
267.79	1.21
268.249	1.16
268.708	1.16
269.168	1.17
269.627	1.15
270.087	1.15
270.546	1.14
271.006	1.1
271.466	1.1
271.926	1.09
272.385	1.09
272.845	1.09
273.305	1.05
273.765	1.06
274.225	1.04
274.685	1.04
275.145	1.05
275.605	1.03
276.065	1.03
276.526	1.02
276.986	1.01
277.446	0.98
277.907	1.01
278.367	1.01
278.828	0.99
279.288	0.99
279.749	0.98
280.209	0.95
280.67	0.95
281.131	0.95
281.592	0.95
282.052	0.95
282.513	0.95
282.974	0.92
283.435	0.91
283.896	0.91
284.357	0.9
284.818	0.9
285.28	0.86
285.741	0.87
286.202	0.86
286.663	0.85
287.125	0.83
287.586	0.83
288.048	0.82
288.509	0.8
288.971	0.8
289.432	0.78
289.894	0.76
290.356	0.76
290.818	0.75
291.279	0.73
291.741	0.72
292.203	0.72
292.665	0.69
293.127	0.69
293.589	0.67
294.051	0.66
294.513	0.65
294.976	0.64
295.438	0.62
295.9	0.61
296.363	0.59
296.825	0.58
297.287	0.57
297.75	0.56
298.212	0.55
298.675	0.53
299.138	0.52
299.6	0.51
300.063	0.5
300.526	0.49
300.989	0.48
301.452	0.46
301.914	0.46
302.377	0.45
302.84	0.44
303.304	0.43
303.767	0.43
304.23	0.42
304.693	0.42
305.156	0.41
305.62	0.41
306.083	0.4
306.546	0.4
307.01	0.4
307.473	0.39
307.937	0.4
308.4	0.39
308.864	0.39
309.328	0.38
309.792	0.38
310.255	0.38
310.719	0.38
311.183	0.38
311.647	0.38
312.111	0.38
312.575	0.38
313.039	0.38
313.503	0.38
313.967	0.38
314.432	0.37
314.896	0.38
315.36	0.37
315.825	0.38
316.289	0.37
316.753	0.38
317.218	0.37
317.683	0.37
318.147	0.37
318.612	0.38
319.076	0.37
319.541	0.37
320.006	0.37
320.471	0.37
320.936	0.37
321.401	0.37
321.866	0.37
322.331	0.37
322.796	0.37
323.261	0.37
323.726	0.37
324.191	0.37
324.656	0.37
325.122	0.37
325.587	0.37
326.053	0.37
326.518	0.37
326.983	0.37
327.449	0.37
327.915	0.37
328.38	0.37
328.846	0.37
329.312	0.37
329.777	0.38
330.243	0.37
330.709	0.37
331.175	0.38
331.641	0.37
332.107	0.37
332.573	0.37
333.039	0.37
333.505	0.37
333.972	0.37
334.438	0.37
334.904	0.37
335.37	0.37
335.837	0.37
336.303	0.37
336.77	0.37
337.236	0.37
337.703	0.37
338.169	0.37
338.636	0.37
339.103	0.37
339.569	0.37
340.036	0.37
340.503	0.37
340.97	0.37
341.437	0.37
341.904	0.37
342.371	0.37
342.838	0.37
343.305	0.37
343.772	0.37
344.24	0.37
344.707	0.37
345.174	0.37
345.641	0.37
346.109	0.37
346.576	0.37
347.044	0.37
347.511	0.37
347.979	0.37
348.447	0.37
348.914	0.37
349.382	0.37
349.85	0.37
350.318	0.37
350.785	0.37
351.253	0.37
351.721	0.37
352.189	0.37
352.657	0.37
353.125	0.37
353.594	0.38
354.062	0.37
354.53	0.37
354.998	0.37
355.466	0.37
355.935	0.38
356.403	0.37
356.872	0.37
357.34	0.37
357.809	0.37
358.277	0.37
358.746	0.37
359.215	0.37
359.683	0.37
360.152	0.37
360.621	0.37
361.09	0.37
361.559	0.37
362.028	0.37
362.497	0.37
362.966	0.37
363.435	0.37
363.904	0.37
364.373	0.37
364.842	0.38
365.312	0.37
365.781	0.37
366.25	0.37
366.72	0.37
367.189	0.37
367.658	0.38
368.128	0.37
368.598	0.37
369.067	0.37
369.537	0.37
370.007	0.37
370.476	0.37
370.946	0.37
371.416	0.37
371.886	0.37
372.356	0.37
372.826	0.37
373.296	0.37
373.766	0.37
374.236	0.37
374.706	0.37
375.176	0.38
375.647	0.37
376.117	0.37
376.587	0.38
377.058	0.38
377.528	0.37
377.998	0.37
378.469	0.37
378.94	0.38
379.41	0.37
379.881	0.37
380.351	0.37
380.822	0.38
381.293	0.37
381.764	0.37
382.235	0.37
382.706	0.38
383.177	0.38
383.648	0.37
384.119	0.37
384.59	0.37
385.061	0.37
385.532	0.38
386.003	0.38
386.474	0.37
386.946	0.37
387.417	0.37
387.888	0.38
388.36	0.37
388.831	0.37
389.303	0.37
389.774	0.37
390.246	0.37
390.718	0.37
391.189	0.37
391.661	0.37
392.133	0.38
392.605	0.38
393.077	0.37
393.549	0.38
394.021	0.37
394.493	0.37
394.965	0.37
395.437	0.38
395.909	0.37
396.381	0.37
396.853	0.37
397.325	0.37
397.798	0.38
398.27	0.37
398.743	0.38
399.215	0.38
399.687	0.37
400.16	0.37
400.633	0.38
401.105	0.38
401.578	0.37
402.051	0.38
402.523	0.37
402.996	0.37
403.469	0.37
403.942	0.37
404.415	0.38
404.888	0.38
405.361	0.38
405.834	0.37
406.307	0.37
406.78	0.37
407.253	0.38
407.726	0.37
408.199	0.37
408.673	0.37
409.146	0.37
409.619	0.38
410.093	0.37
410.566	0.38
411.04	0.37
411.513	0.37
411.987	0.38
412.461	0.37
412.934	0.37
413.408	0.37
413.882	0.38
414.356	0.37
414.829	0.38
415.303	0.37
415.777	0.37
416.251	0.37
416.725	0.37
417.199	0.37
417.673	0.37
418.148	0.37
418.622	0.37
419.096	0.37
419.57	0.37
420.045	0.37
420.519	0.37
420.993	0.37
421.468	0.37
421.942	0.37
422.417	0.37
422.891	0.37
423.366	0.37
423.841	0.37
424.315	0.37
424.79	0.37
425.265	0.38
425.74	0.37
426.215	0.37
426.689	0.37
427.164	0.37
427.639	0.37
428.114	0.37
428.589	0.37
429.065	0.37
429.54	0.38
430.015	0.37
430.49	0.38
430.965	0.37
431.441	0.37
431.916	0.37
432.392	0.37
432.867	0.37
433.342	0.37
433.818	0.37
434.294	0.37
434.769	0.37
435.245	0.37
435.721	0.37
436.196	0.37
436.672	0.37
437.148	0.37
437.624	0.37
438.1	0.37
438.576	0.37
439.052	0.37
439.528	0.37
440.004	0.38
440.48	0.38
440.956	0.37
441.432	0.37
441.908	0.37
442.385	0.37
442.861	0.38
443.337	0.37
443.814	0.37
444.29	0.37
444.767	0.37
445.243	0.37
445.72	0.37
446.196	0.37
446.673	0.38
447.15	0.37
447.626	0.37
448.103	0.37
448.58	0.37
449.057	0.37
449.534	0.37
450.01	0.38
450.487	0.37
450.964	0.37
451.442	0.37
451.919	0.37
452.396	0.37
452.873	0.37
453.35	0.37
453.827	0.38
454.305	0.37
454.782	0.37
455.259	0.37
455.737	0.37
456.214	0.38
456.692	0.37
457.169	0.37
457.647	0.37
458.124	0.37
458.602	0.38
459.08	0.37
459.557	0.37
460.035	0.37
460.513	0.38
460.991	0.38
461.469	0.37
461.947	0.37
462.425	0.37
462.903	0.37
463.381	0.37
463.859	0.37
464.337	0.37
464.815	0.38
465.293	0.37
465.772	0.37
466.25	0.37
466.728	0.38
467.207	0.38
467.685	0.38
468.164	0.37
468.642	0.37
469.121	0.37
469.599	0.37
470.078	0.37
470.556	0.37
471.035	0.37
471.514	0.37
471.993	0.38
472.471	0.38
472.95	0.37
473.429	0.37
473.908	0.37
474.387	0.38
474.866	0.37
475.345	0.37
475.824	0.38
476.303	0.38
476.782	0.38
477.262	0.37
477.741	0.38
478.22	0.38
478.7	0.37
479.179	0.37
479.658	0.38
480.138	0.37
480.617	0.38
481.097	0.37
481.576	0.37
482.056	0.37
482.535	0.37
483.015	0.37
483.495	0.37
483.975	0.37
484.454	0.37
484.934	0.37
485.414	0.37
485.894	0.37
486.374	0.37
486.854	0.37
487.334	0.37
487.814	0.37
488.294	0.37
488.774	0.37
489.254	0.37
489.735	0.37
490.215	0.37
490.695	0.37
491.176	0.37
491.656	0.37
492.136	0.37
492.617	0.37
493.097	0.37
493.578	0.37
494.058	0.37
494.539	0.37
495.02	0.37
495.5	0.37
495.981	0.37
496.462	0.37
496.943	0.37
497.423	0.37
497.904	0.37
498.385	0.37
498.866	0.37
499.347	0.37
499.828	0.37
500.309	0.37
500.79	0.37
501.271	0.38
501.753	0.38
502.234	0.37
502.715	0.38
503.196	0.38
503.678	0.37
504.159	0.38
504.64	0.38
505.122	0.38
505.603	0.37
506.085	0.38
506.566	0.38
507.048	0.38
507.53	0.38
508.011	0.38
508.493	0.38
508.975	0.37
509.457	0.38
509.938	0.38
510.42	0.38
510.902	0.37
511.384	0.38
511.866	0.38
512.348	0.38
512.83	0.37
513.312	0.37
513.794	0.38
514.276	0.38
514.759	0.37
515.241	0.38
515.723	0.38
516.206	0.38
516.688	0.37
517.17	0.37
517.653	0.38
518.135	0.38
518.618	0.38
519.1	0.37
519.583	0.38
520.065	0.38
520.548	0.38
521.031	0.38
521.513	0.38
521.996	0.38
522.479	0.37
522.962	0.38
523.445	0.38
523.927	0.38
524.41	0.38
524.893	0.37
525.376	0.37
525.859	0.38
526.343	0.38
526.826	0.37
527.309	0.37
527.792	0.38
528.275	0.37
528.759	0.38
529.242	0.38
529.725	0.37
530.209	0.37
530.692	0.37
531.175	0.38
531.659	0.38
532.142	0.37
532.626	0.38
533.11	0.38
533.593	0.37
534.077	0.37
534.561	0.38
535.044	0.38
535.528	0.37
536.012	0.38
536.496	0.37
536.98	0.38
537.464	0.37
537.948	0.37
538.432	0.37
538.916	0.37
539.4	0.37
539.884	0.36
540.368	0.36
540.852	0.36
541.336	0.35
541.821	0.35
542.305	0.35
542.789	0.35
543.274	0.34
543.758	0.34
544.243	0.34
544.727	0.34
545.211	0.34
545.696	0.35
546.181	0.35
546.665	0.35
547.15	0.35
547.635	0.36
548.119	0.36
548.604	0.36
549.089	0.36
549.574	0.36
550.059	0.37
550.543	0.37
551.028	0.37
551.513	0.37
551.998	0.37
552.483	0.37
552.968	0.37
553.454	0.37
553.939	0.37
554.424	0.37
554.909	0.37
555.394	0.37
555.88	0.37
556.365	0.37
556.85	0.37
557.336	0.37
557.821	0.37
558.307	0.38
558.792	0.38
559.278	0.37
559.763	0.37
560.249	0.37
560.735	0.37
561.22	0.37
561.706	0.37
562.192	0.37
562.677	0.37
563.163	0.37
563.649	0.37
564.135	0.37
564.621	0.37
565.107	0.37
565.593	0.37
566.079	0.37
566.565	0.37
567.051	0.37
567.537	0.37
568.023	0.37
568.51	0.37
568.996	0.37
569.482	0.37
569.968	0.37
570.455	0.37
570.941	0.37
571.428	0.38
571.914	0.37
572.4	0.38
572.887	0.38
573.374	0.38
573.86	0.38
574.347	0.37
574.833	0.38
575.32	0.38
575.807	0.38
576.294	0.37
576.78	0.37
577.267	0.37
577.754	0.38
578.241	0.38
578.728	0.37
579.215	0.37
579.702	0.37
580.189	0.38
580.676	0.38
581.163	0.38
581.65	0.37
582.137	0.37
582.625	0.37
583.112	0.37
583.599	0.37
584.086	0.37
584.574	0.37
585.061	0.37
585.548	0.37
586.036	0.37
586.523	0.37
587.011	0.37
587.498	0.37
587.986	0.37
588.474	0.37
588.961	0.37
589.449	0.37
589.937	0.37
590.424	0.37
590.912	0.37
591.4	0.37
591.888	0.37
592.376	0.37
592.864	0.37
593.352	0.37
593.84	0.37
594.328	0.37
594.816	0.37
595.304	0.37
595.792	0.38
596.28	0.38
596.768	0.38
597.256	0.37
597.745	0.38
598.233	0.38
598.721	0.37
599.209	0.37
599.698	0.38
600.186	0.38
600.675	0.38
601.163	0.37
601.652	0.38
602.14	0.38
602.629	0.38
603.117	0.38
603.606	0.37
604.095	0.38
604.583	0.38
605.072	0.38
605.561	0.38
606.05	0.38
606.539	0.38
607.028	0.37
607.516	0.37
608.005	0.37
608.494	0.37
608.983	0.36
609.472	0.36
609.961	0.36
610.451	0.36
610.94	0.36
611.429	0.36
611.918	0.36
612.407	0.36
612.897	0.36
613.386	0.36
613.875	0.36
614.365	0.37
614.854	0.37
615.343	0.37
615.833	0.37
616.322	0.37
616.812	0.37
617.301	0.37
617.791	0.37
618.281	0.37
618.77	0.37
619.26	0.37
619.75	0.37
620.24	0.37
620.729	0.37
621.219	0.37
621.709	0.37
622.199	0.37
622.689	0.37
623.179	0.37
623.669	0.37
624.159	0.37
624.649	0.37
625.139	0.37
625.629	0.37
626.119	0.37
626.609	0.37
627.099	0.37
627.59	0.37
628.08	0.37
628.57	0.37
629.061	0.37
629.551	0.37
630.041	0.37
630.532	0.37
631.022	0.37
631.513	0.37
632.003	0.37
632.494	0.37
632.984	0.37
633.475	0.37
633.966	0.37
634.456	0.37
634.947	0.37
635.438	0.37
635.929	0.37
636.419	0.37
636.91	0.37
637.401	0.37
637.892	0.37
638.383	0.37
638.874	0.37
639.365	0.37
639.856	0.37
640.347	0.37
640.838	0.37
641.329	0.37
641.82	0.37
642.311	0.37
642.803	0.37
643.294	0.37
643.785	0.37
644.277	0.37
644.768	0.37
645.259	0.37
645.751	0.37
646.242	0.37
646.734	0.37
647.225	0.37
647.717	0.37
648.208	0.37
648.7	0.37
649.191	0.37
649.683	0.37
650.175	0.37
650.666	0.37
651.158	0.37
651.65	0.37
652.142	0.37
652.633	0.37
653.125	0.37
653.617	0.37
654.109	0.37
654.601	0.38
655.093	0.38
655.585	0.38
656.077	0.38
656.569	0.38
657.061	0.38
657.553	0.38
658.046	0.38
658.538	0.38
659.03	0.37
659.522	0.37
660.015	0.37
660.507	0.37
660.999	0.37
661.492	0.37
661.984	0.37
662.476	0.37
662.969	0.37
663.461	0.37
663.954	0.37
664.446	0.37
664.939	0.37
665.432	0.37
665.924	0.37
666.417	0.37
666.91	0.37
667.402	0.37
667.895	0.37
668.388	0.37
668.881	0.37
