Data from S030561_13-50-55-420.txt Node
Date: Thu Feb 22 13:50:55 GMT 2018
User: darren.whitaker
Spectrometer: S03056
Trigger mode: 0
Resolution mode: 1024 pixels
Integration Time (sec): 1.500000E0
Scans to average: 1
Nonlinearity correction enabled: false
Boxcar width: 0
Baseline correction enabled: true
XAxis mode: Wavelengths
Number of Pixels in Spectrum: 1024
>>>>>Begin Spectral Data<<<<<
184.595	34
185.045	11
185.495	27
185.945	33
186.395	-19
186.845	50
187.295	29
187.745	61
188.195	57
188.646	8
189.096	45
189.546	35
189.997	53
190.447	62
190.898	60
191.348	40
191.799	48
192.249	49
192.7	45
193.151	53
193.602	54
194.053	7
194.504	56
194.955	12
195.406	35
195.857	54
196.308	54
196.759	50
197.21	44
197.662	52
198.113	58
198.564	46
199.016	45
199.467	16
199.919	52
200.371	28
200.822	69
201.274	64
201.726	30
202.178	43
202.63	61
203.082	55
203.534	70
203.986	57
204.438	47
204.89	79
205.342	58
205.794	44
206.247	80
206.699	43
207.152	57
207.604	77
208.057	66
208.509	83
208.962	82
209.415	81
209.867	91
210.32	82
210.773	53
211.226	98
211.679	51
212.132	42
212.585	64
213.038	111
213.491	106
213.944	94
214.398	88
214.851	102
215.304	119
215.758	134
216.211	115
216.665	135
217.119	136
217.572	114
218.026	129
218.48	163
218.933	182
219.387	186
219.841	176
220.295	183
220.749	201
221.203	187
221.657	224
222.112	226
222.566	216
223.02	253
223.474	255
223.929	246
224.383	263
224.838	288
225.292	292
225.747	306
226.202	298
226.656	320
227.111	288
227.566	351
228.021	358
228.476	358
228.931	366
229.386	388
229.841	402
230.296	438
230.751	451
231.206	451
231.661	466
232.117	462
232.572	494
233.027	501
233.483	473
233.938	510
234.394	567
234.85	590
235.305	609
235.761	624
236.217	672
236.673	646
237.129	681
237.585	698
238.041	751
238.497	765
238.953	797
239.409	784
239.865	847
240.321	860
240.778	879
241.234	849
241.69	877
242.147	940
242.603	963
243.06	1023
243.517	1050
243.973	1032
244.43	1037
244.887	1078
245.343	1082
245.8	1115
246.257	1115
246.714	1147
247.171	1192
247.628	1226
248.085	1241
248.543	1259
249	1261
249.457	1274
249.914	1272
250.372	1320
250.829	1337
251.287	1371
251.744	1385
252.202	1316
252.659	1463
253.117	1397
253.575	1443
254.033	1495
254.491	1524
254.948	1527
255.406	1574
255.864	1594
256.322	1610
256.78	1589
257.239	1541
257.697	1664
258.155	1608
258.613	1671
259.072	1704
259.53	1692
259.988	1679
260.447	1671
260.906	1675
261.364	1688
261.823	1676
262.281	1720
262.74	1718
263.199	1730
263.658	1720
264.117	1694
264.576	1686
265.035	1718
265.494	1770
265.953	1780
266.412	1787
266.871	1765
267.33	1760
267.79	1789
268.249	1776
268.708	1749
269.168	1767
269.627	1785
270.087	1788
270.546	1805
271.006	1805
271.466	1774
271.926	1787
272.385	1767
272.845	1826
273.305	1847
273.765	1791
274.225	1825
274.685	1842
275.145	1827
275.605	1773
276.065	1820
276.526	1845
276.986	1865
277.446	1854
277.907	1852
278.367	1880
278.828	1880
279.288	1847
279.749	1934
280.209	1930
280.67	1909
281.131	1943
281.592	1979
282.052	1988
282.513	2047
282.974	2015
283.435	2032
283.896	2118
284.357	2110
284.818	2069
285.28	2046
285.741	2090
286.202	2033
286.663	2155
287.125	2144
287.586	2178
288.048	2280
288.509	2255
288.971	2279
289.432	2306
289.894	2281
290.356	2316
290.818	2256
291.279	2296
291.741	2345
292.203	2345
292.665	2321
293.127	2387
293.589	2363
294.051	2440
294.513	2406
294.976	2424
295.438	2464
295.9	2429
296.363	2464
296.825	2510
297.287	2565
297.75	2620
298.212	2570
298.675	2547
299.138	2627
299.6	2616
300.063	2609
300.526	2658
300.989	2764
301.452	2810
301.914	2754
302.377	2842
302.84	2792
303.304	2918
303.767	2971
304.23	2984
304.693	2978
305.156	2966
305.62	3043
306.083	3099
306.546	3116
307.01	3147
307.473	3167
307.937	3172
308.4	3188
308.864	3158
309.328	3207
309.792	3127
310.255	3208
310.719	3272
311.183	3265
311.647	3283
312.111	3304
312.575	3299
313.039	3370
313.503	3397
313.967	3388
314.432	3429
314.896	3360
315.36	3396
315.825	3441
316.289	3408
316.753	3508
317.218	3567
317.683	3517
318.147	3565
318.612	3566
319.076	3584
319.541	3575
320.006	3640
320.471	3600
320.936	3534
321.401	3529
321.866	3589
322.331	3582
322.796	3585
323.261	3618
323.726	3570
324.191	3527
324.656	3552
325.122	3574
325.587	3547
326.053	3589
326.518	3577
326.983	3543
327.449	3598
327.915	3627
328.38	3605
328.846	3620
329.312	3587
329.777	3646
330.243	3584
330.709	3491
331.175	3629
331.641	3643
332.107	3778
332.573	3855
333.039	3778
333.505	3744
333.972	3708
334.438	3916
334.904	3852
335.37	3863
335.837	3824
336.303	3819
336.77	3950
337.236	3924
337.703	3847
338.169	3975
338.636	3965
339.103	4017
339.569	4023
340.036	4020
340.503	3975
340.97	3973
341.437	4019
341.904	4113
342.371	4124
342.838	4096
343.305	4054
343.772	4052
344.24	3979
344.707	4017
345.174	4009
345.641	3946
346.109	3976
346.576	3951
347.044	3819
347.511	3920
347.979	3832
348.447	3969
348.914	3964
349.382	3880
349.85	3863
350.318	3888
350.785	3875
351.253	4019
351.721	3826
352.189	3961
352.657	3876
353.125	3819
353.594	3926
354.062	3969
354.53	3897
354.998	3884
355.466	3873
355.935	3906
356.403	3799
356.872	3837
357.34	3946
357.809	3837
358.277	3968
358.746	3943
359.215	3998
359.683	3945
360.152	4065
360.621	4008
361.09	4062
361.559	4093
362.028	4065
362.497	4106
362.966	4034
363.435	4037
363.904	4321
364.373	4125
364.842	4119
365.312	4219
365.781	4133
366.25	4226
366.72	4214
367.189	4266
367.658	4255
368.128	4330
368.598	4304
369.067	4352
369.537	4290
370.007	4280
370.476	4340
370.946	4200
371.416	4374
371.886	4180
372.356	4239
372.826	4274
373.296	4234
373.766	4221
374.236	4236
374.706	4264
375.176	4177
375.647	4199
376.117	4159
376.587	4208
377.058	4287
377.528	4263
377.998	4297
378.469	4326
378.94	4367
379.41	4269
379.881	4293
380.351	4269
380.822	4206
381.293	4245
381.764	4235
382.235	4200
382.706	4093
383.177	4018
383.648	4324
384.119	4239
384.59	4214
385.061	4175
385.532	4192
386.003	4302
386.474	4062
386.946	4109
387.417	4343
387.888	4170
388.36	4072
388.831	4122
389.303	4227
389.774	4058
390.246	4283
390.718	4168
391.189	4025
391.661	4323
392.133	4074
392.605	4128
393.077	3979
393.549	4252
394.021	4448
394.493	4164
394.965	4214
395.437	4054
395.909	4039
396.381	4353
396.853	3981
397.325	4454
397.798	4235
398.27	4124
398.743	4287
399.215	4264
399.687	4383
400.16	4519
400.633	4229
401.105	3904
401.578	4078
402.051	4133
402.523	4069
402.996	4102
403.469	4173
403.942	3927
404.415	4119
404.888	4117
405.361	4035
405.834	3907
406.307	3969
406.78	3906
407.253	4158
407.726	3969
408.199	4109
408.673	4037
409.146	3784
409.619	3897
410.093	3793
410.566	3979
411.04	3777
411.513	3793
411.987	3839
412.461	3844
412.934	3815
413.408	3747
413.882	3629
414.356	3744
414.829	3752
415.303	3860
415.777	3712
416.251	3716
416.725	3822
417.199	3458
417.673	3627
418.148	3484
418.622	3790
419.096	3504
419.57	3748
420.045	3622
420.519	3632
420.993	3738
421.468	3647
421.942	3633
422.417	3656
422.891	3797
423.366	3719
423.841	3719
424.315	3606
424.79	3737
425.265	3683
425.74	3494
426.215	3582
426.689	3548
427.164	3743
427.639	3632
428.114	3761
428.589	3821
429.065	3779
429.54	3660
430.015	3904
430.49	3543
430.965	3676
431.441	3676
431.916	3649
432.392	3590
432.867	3581
433.342	3621
433.818	3568
434.294	3562
434.769	3715
435.245	3530
435.721	3697
436.196	3758
436.672	3524
437.148	3522
437.624	3696.5
438.1	3871
438.576	3584
439.052	3692
439.528	3763
440.004	3536
440.48	3546
440.956	3600
441.432	3553
441.908	3755
442.385	3732
442.861	3572
443.337	3672
443.814	3530
444.29	3577
444.767	3636
445.243	3758
445.72	3532
446.196	3758
446.673	3790
447.15	3562
447.626	3711
448.103	3597
448.58	3595
449.057	3478
449.534	3696
450.01	3605
450.487	3542
450.964	3398
451.442	3738
451.919	3354
452.396	3426
452.873	3480.5
453.35	3535
453.827	3702
454.305	3371
454.782	3277
455.259	3167
455.737	3411
456.214	3227
456.692	3244
457.169	3259
457.647	3249
458.124	3312
458.602	3414
459.08	3235
459.557	3348
460.035	3397
460.513	3273
460.991	3400
461.469	3209
461.947	3286
462.425	3302
462.903	3223
463.381	3335
463.859	3358
464.337	3334
464.815	3403
465.293	3315
465.772	3272
466.25	3257
466.728	3497
467.207	3238
467.685	3263
468.164	3226
468.642	3098
469.121	3179
469.599	3151
470.078	3152
470.556	3029
471.035	3043
471.514	3056
471.993	3135
472.471	2994
472.95	3201
473.429	3158
473.908	3246
474.387	3371
474.866	3332
475.345	3529
475.824	3371
476.303	3442
476.782	3483
477.262	3486
477.741	3581
478.22	3570
478.7	3580
479.179	3618
479.658	3632
480.138	3661
480.617	3731
481.097	3638
481.576	3726
482.056	3762
482.535	3857
483.015	3902
483.495	4088
483.975	4093
484.454	4226
484.934	4220
485.414	4174
485.894	4234
486.374	4242
486.854	4228
487.334	4203
487.814	4135
488.294	4071
488.774	3975
489.254	3890
489.735	3744
490.215	3714
490.695	3662
491.176	3665
491.656	3513
492.136	3679
492.617	3616
493.097	3624
493.578	3610
494.058	3705
494.539	3719
495.02	3635
495.5	3617
495.981	3705
496.462	3676
496.943	3603
497.423	3628
497.904	3606
498.385	3524
498.866	3549
499.347	3558
499.828	3537
500.309	3393
500.79	3521
501.271	3528
501.753	3571
502.234	3388
502.715	3557
503.196	3487
503.678	3535
504.159	3570
504.64	3481
505.122	3431
505.603	3476
506.085	3472
506.566	3398
507.048	3422
507.53	3411
508.011	3234
508.493	3406
508.975	3340
509.457	3334
509.938	3291
510.42	3308
510.902	3294
511.384	3334
511.866	3323
512.348	3273
512.83	3187
513.312	3202
513.794	3224
514.276	3102
514.759	3153
515.241	3090
515.723	3120
516.206	3020
516.688	3007
517.17	3077
517.653	2991
518.135	2971
518.618	3015
519.1	2968
519.583	2892
520.065	2884
520.548	2863
521.031	2844
521.513	2764
521.996	2825
522.479	2775
522.962	2814
523.445	2717
523.927	2735
524.41	2742
524.893	2704
525.376	2669
525.859	2646
526.343	2671
526.826	2622
527.309	2566
527.792	2651
528.275	2583
528.759	2604
529.242	2575
529.725	2539
530.209	2508
530.692	2490
531.175	2529
531.659	2523
532.142	2506
532.626	2521
533.11	2513
533.593	2505
534.077	2478
534.561	2519
535.044	2485
535.528	2520
536.012	2508
536.496	2451
536.98	2529
537.464	2509
537.948	2469
538.432	2492
538.916	2473
539.4	2516
539.884	2502
540.368	2477
540.852	2540
541.336	2477
541.821	2522
542.305	2520
542.789	2493
543.274	2516
543.758	2496
544.243	2486
544.727	2565
545.211	2557
545.696	2609
546.181	2624
546.665	2629
547.15	2544
547.635	2607
548.119	2532
548.604	2547
549.089	2594
549.574	2614
550.059	2562
550.543	2588
551.028	2579
551.513	2513
551.998	2562
552.483	2609
552.968	2639
553.454	2617
553.939	2754
554.424	2707
554.909	2701
555.394	2709
555.88	2701
556.365	2680
556.85	2661
557.336	2723
557.821	2693
558.307	2772
558.792	2762
559.278	2827
559.763	2809
560.249	2852
560.735	2930
561.22	2981
561.706	3020
562.192	3034
562.677	3073
563.163	3076
563.649	3060
564.135	3085
564.621	3085
565.107	3091
565.593	3160
566.079	3196
566.565	3304
567.051	3383
567.537	3530
568.023	3652
568.51	3862
568.996	3997
569.482	4176
569.968	4343
570.455	4516
570.941	4737
571.428	4857
571.914	5034
572.4	5232
572.887	5359
573.374	5392
573.86	5497
574.347	5547
574.833	5725
575.32	5926
575.807	6081
576.294	6066
576.78	6190
577.267	6195
577.754	6153
578.241	6373
578.728	6601
579.215	6835
579.702	6884.5
580.189	6934
580.676	6655
581.163	6597
581.65	6669
582.137	6774
582.625	6802.5
583.112	6831
583.599	6718
584.086	6655
584.574	6519
585.061	6383
585.548	6379
586.036	6235
586.523	6328
587.011	6184
587.498	6062
587.986	5873
588.474	5581
588.961	5602
589.449	5485
589.937	5431
590.424	5470
590.912	5517
591.4	5522
591.888	5564
592.376	5608
592.864	5478
593.352	5606
593.84	5567
594.328	5633
594.816	5720
595.304	5548
595.792	5530
596.28	5519
596.768	5726
597.256	5850
597.745	5888
598.233	5971
598.721	6028
599.209	6115
599.698	6117
600.186	6072
600.675	6146
601.163	6087
601.652	6069
602.14	5997
602.629	5929
603.117	5808
603.606	5878
604.095	5966
604.583	5926
605.072	6051
605.561	6234
606.05	6008
606.539	6081
607.028	5963
607.516	5906
608.005	5993
608.494	5734
608.983	5603
609.472	5534
609.961	5457
610.451	5376
610.94	5207
611.429	5374
611.918	5352
612.407	5305
612.897	5335
613.386	5365
613.875	5389
614.365	5220
614.854	5345
615.343	5146
615.833	5144
616.322	5088
616.812	4967
617.301	4837
617.791	4723
618.281	4519
618.77	4535
619.26	4506
619.75	4378
620.24	4374
620.729	4369
621.219	4395.5
621.709	4422
622.199	4369
622.689	4437
623.179	4350
623.669	4307
624.159	4348
624.649	4331
625.139	4206
625.629	4177
626.119	4206
626.609	4111
627.099	4042
627.59	3976
628.08	3942
628.57	3885
629.061	3854
629.551	3766
630.041	3723
630.532	3711
631.022	3653
631.513	3531
632.003	3470
632.494	3392
632.984	3478
633.475	3424
633.966	3429
634.456	3420
634.947	3434
635.438	3417
635.929	3330
636.419	3407
636.91	3423
637.401	3381
637.892	3431
638.383	3342
638.874	3310
639.365	3277
639.856	3333
640.347	3278
640.838	3266
641.329	3166
641.82	3272
642.311	3260
642.803	3299
643.294	3238
643.785	3287
644.277	3240
644.768	3300
645.259	3218
645.751	3369
646.242	3322
646.734	3415
647.225	3435
647.717	3417
648.208	3449
648.7	3525
649.191	3526
649.683	3582
650.175	3572
650.666	3539
651.158	3524
651.65	3579
652.142	4104
652.633	4844
653.125	5657
653.617	6295
654.109	6609
654.601	6737
655.093	6976
655.585	6915
656.077	7072
656.569	6911
657.061	6818
657.553	6518
658.046	5569
658.538	4788
659.03	4019
659.522	3816
660.015	3538
660.507	3463
660.999	3449
661.492	3456
661.984	3411
662.476	3416
662.969	3502
663.461	3456
663.954	3454
664.446	3486
664.939	3467
665.432	3494
665.924	3485
666.417	3481
666.91	3530
667.402	3484
667.895	3536
668.388	3576
668.881	3616
