Data from S030561_13-50-40-046.txt Node
Date: Thu Feb 22 13:50:40 GMT 2018
User: darren.whitaker
Spectrometer: S03056
Trigger mode: 0
Resolution mode: 1024 pixels
Integration Time (sec): 1.500000E0
Scans to average: 1
Nonlinearity correction enabled: false
Boxcar width: 0
Baseline correction enabled: true
XAxis mode: Wavelengths
Number of Pixels in Spectrum: 1024
>>>>>Begin Spectral Data<<<<<
184.595	7
185.045	-20
185.495	2
185.945	10
186.395	-49
186.845	25
187.295	2
187.745	31
188.195	32
188.646	-19
189.096	23
189.546	12
189.997	30
190.447	35
190.898	36
191.348	10
191.799	20
192.249	20
192.7	23
193.151	20
193.602	25
194.053	-19
194.504	24
194.955	-21
195.406	6
195.857	27
196.308	24
196.759	14
197.21	9
197.662	21
198.113	29
198.564	14
199.016	9
199.467	-12
199.919	24
200.371	-2
200.822	38
201.274	29
201.726	0
202.178	11
202.63	31
203.082	16
203.534	29
203.986	25
204.438	13
204.89	40
205.342	26
205.794	6
206.247	38
206.699	1
207.152	17
207.604	39
208.057	25
208.509	31
208.962	33.5
209.415	36
209.867	41
210.32	25
210.773	-9
211.226	40
211.679	-21
212.132	-23
212.585	-14
213.038	42
213.491	31
213.944	19
214.398	4
214.851	16
215.304	31
215.758	40
216.211	22
216.665	33
217.119	30
217.572	5
218.026	14
218.48	46
218.933	55
219.387	58
219.841	40
220.295	38
220.749	53
221.203	25
221.657	60
222.112	59
222.566	38
223.02	64
223.474	66
223.929	40
224.383	49
224.838	72
225.292	65
225.747	71
226.202	58
226.656	58
227.111	17
227.566	66
228.021	61
228.476	53
228.931	58
229.386	66
229.841	67
230.296	88
230.751	86
231.206	74
231.661	74
232.117	62
232.572	75
233.027	70
233.483	33
233.938	45
234.394	76
234.85	95
235.305	86
235.761	84
236.217	103
236.673	58
237.129	81
237.585	79
238.041	95
238.497	99
238.953	107
239.409	60
239.865	100
240.321	91
240.778	92
241.234	44
241.69	40
242.147	95
242.603	88
243.06	99
243.517	109
243.973	99
244.43	94
244.887	105
245.343	89
245.8	95
246.257	71
246.714	80
247.171	100
247.628	119
248.085	106
248.543	113
249	99
249.457	99
249.914	63
250.372	115
250.829	99
251.287	115
251.744	96
252.202	6
252.659	123
253.117	51
253.575	111
254.033	102
254.491	110
254.948	122
255.406	123
255.864	113
256.322	119
256.78	121
257.239	102
257.697	116
258.155	62
258.613	117
259.072	121
259.53	93
259.988	120
260.447	118
260.906	95
261.364	97
261.823	91
262.281	98
262.74	109
263.199	111
263.658	107
264.117	91
264.576	103
265.035	98
265.494	129
265.953	104
266.412	123
266.871	87
267.33	85
267.79	102
268.249	126
268.708	113
269.168	111
269.627	113
270.087	123
270.546	120
271.006	100
271.466	84
271.926	109
272.385	95
272.845	115
273.305	121
273.765	93
274.225	111
274.685	125
275.145	128
275.605	92
276.065	129
276.526	111
276.986	118
277.446	117
277.907	103
278.367	114
278.828	98
279.288	72
279.749	129
280.209	77
280.67	102
281.131	126
281.592	129
282.052	113
282.513	112
282.974	110
283.435	126
283.896	119
284.357	127
284.818	126
285.28	91
285.741	108
286.202	58
286.663	117
287.125	113
287.586	106
288.048	131
288.509	82
288.971	116
289.432	122
289.894	115
290.356	110
290.818	83
291.279	125
291.741	131
292.203	115
292.665	128
293.127	132
293.589	108
294.051	128
294.513	97
294.976	111
295.438	116
295.9	114
296.363	98
296.825	107
297.287	130
297.75	135
298.212	125
298.675	104
299.138	114
299.6	112
300.063	112
300.526	112
300.989	118
301.452	123
301.914	106
302.377	137
302.84	43
303.304	123
303.767	141
304.23	133
304.693	131
305.156	106
305.62	137
306.083	139
306.546	129
307.01	120
307.473	139
307.937	131
308.4	135
308.864	133
309.328	148
309.792	69
310.255	111
310.719	152
311.183	102
311.647	137
312.111	127
312.575	87
313.039	145
313.503	142
313.967	138
314.432	159
314.896	63
315.36	90
315.825	113
316.289	99
316.753	137
317.218	157
317.683	135
318.147	139
318.612	134
319.076	144
319.541	112
320.006	150
320.471	156
320.936	111
321.401	130
321.866	136
322.331	146
322.796	140
323.261	142
323.726	122
324.191	146
324.656	132
325.122	143
325.587	149
326.053	122
326.518	149
326.983	127
327.449	136
327.915	133
328.38	140
328.846	144
329.312	110
329.777	133
330.243	114
330.709	12
331.175	127
331.641	136
332.107	145
332.573	146
333.039	140
333.505	129
333.972	118
334.438	135
334.904	142
335.37	137
335.837	141
336.303	89
336.77	150
337.236	129
337.703	98
338.169	139
338.636	142
339.103	138
339.569	154
340.036	135
340.503	139
340.97	103
341.437	122
341.904	145
342.371	132
342.838	155
343.305	137
343.772	108
344.24	121
344.707	134
345.174	113
345.641	135
346.109	132
346.576	107
347.044	138
347.511	142
347.979	36
348.447	135
348.914	135
349.382	125
349.85	136
350.318	91
350.785	105
351.253	130
351.721	132
352.189	135
352.657	129
353.125	135
353.594	98
354.062	129
354.53	130
354.998	132
355.466	144
355.935	140
356.403	94
356.872	64
357.34	134
357.809	129
358.277	124
358.746	127
359.215	136
359.683	129
360.152	132
360.621	116
361.09	129
361.559	127
362.028	122
362.497	146
362.966	126
363.435	92
363.904	131
364.373	140
364.842	137
365.312	143
365.781	147
366.25	128
366.72	106
367.189	141
367.658	119
368.128	134
368.598	129
369.067	116
369.537	122
370.007	149
370.476	129
370.946	141
371.416	124
371.886	96
372.356	139
372.826	140
373.296	130
373.766	120
374.236	120
374.706	146
375.176	122
375.647	122
376.117	123
376.587	63
377.058	106
377.528	130
377.998	123
378.469	141
378.94	139
379.41	131
379.881	138
380.351	98
380.822	126
381.293	96
381.764	133
382.235	100
382.706	27
383.177	118
383.648	73
384.119	131
384.59	121
385.061	98
385.532	130
386.003	131
386.474	115
386.946	109
387.417	136
387.888	115
388.36	15
388.831	126
389.303	103
389.774	89
390.246	69
390.718	122
391.189	127
391.661	119
392.133	113
392.605	139
393.077	4
393.549	101
394.021	155
394.493	119
394.965	123
395.437	97
395.909	126
396.381	133
396.853	130
397.325	148
397.798	126
398.27	100
398.743	109
399.215	132
399.687	111
400.16	108
400.633	135
401.105	90
401.578	130
402.051	140
402.523	123
402.996	113
403.469	134
403.942	104
404.415	144
404.888	121
405.361	124
405.834	135
406.307	125
406.78	65
407.253	139
407.726	56
408.199	123
408.673	112
409.146	128
409.619	110
410.093	90
410.566	106
411.04	81
411.513	54
411.987	109
412.461	104
412.934	91
413.408	120
413.882	117
414.356	91
414.829	118
415.303	81
415.777	98
416.251	128
416.725	86
417.199	91
417.673	107
418.148	84
418.622	117
419.096	104
419.57	124
420.045	124
420.519	112
420.993	109
421.468	116
421.942	108
422.417	103
422.891	124
423.366	82
423.841	120
424.315	122
424.79	120
425.265	35
425.74	112
426.215	74
426.689	82
427.164	100
427.639	119
428.114	140
428.589	118
429.065	118
429.54	137
430.015	144
430.49	96
430.965	83
431.441	126
431.916	124
432.392	125
432.867	119
433.342	144
433.818	143
434.294	142
434.769	150
435.245	115
435.721	132
436.196	133
436.672	145
437.148	150
437.624	149
438.1	148
438.576	100
439.052	99
439.528	133
440.004	115
440.48	117
440.956	96
441.432	107
441.908	124
442.385	92
442.861	11
443.337	128
443.814	114
444.29	117
444.767	122
445.243	126
445.72	123
446.196	134
446.673	138
447.15	125
447.626	119
448.103	129
448.58	125
449.057	117
449.534	105
450.01	115
450.487	117
450.964	96
451.442	128
451.919	114
452.396	106
452.873	97
453.35	88
453.827	129
454.305	119
454.782	103
455.259	70
455.737	112
456.214	113
456.692	96
457.169	107
457.647	113
458.124	123
458.602	124
459.08	106
459.557	91
460.035	104
460.513	103
460.991	116
461.469	111
461.947	94
462.425	90
462.903	108
463.381	84
463.859	118
464.337	111
464.815	122
465.293	107
465.772	81
466.25	72
466.728	121
467.207	114
467.685	113
468.164	92
468.642	59
469.121	97
469.599	81
470.078	101
470.556	85
471.035	97
471.514	70
471.993	96
472.471	70
472.95	106
473.429	107
473.908	100
474.387	123
474.866	110
475.345	122
475.824	92
476.303	87
476.782	134
477.262	83
477.741	128
478.22	107
478.7	92
479.179	112
479.658	131
480.138	124
480.617	102
481.097	124
481.576	115
482.056	106
482.535	133
483.015	94
483.495	150
483.975	132
484.454	168
484.934	146
485.414	121
485.894	177
486.374	157
486.854	164
487.334	160
487.814	178
488.294	169
488.774	149
489.254	170
489.735	161
490.215	143
490.695	147
491.176	123
491.656	38
492.136	151
492.617	94
493.097	139
493.578	121
494.058	133
494.539	144
495.02	145
495.5	109
495.981	137
496.462	131
496.943	109
497.423	129
497.904	83
498.385	139
498.866	113
499.347	112
499.828	121
500.309	38
500.79	120
501.271	130
501.753	131
502.234	26
502.715	112
503.196	113
503.678	110
504.159	125
504.64	97
505.122	45
505.603	127
506.085	112
506.566	102
507.048	96
507.53	89
508.011	34
508.493	109
508.975	100
509.457	65
509.938	59
510.42	118
510.902	78
511.384	115
511.866	113
512.348	116
512.83	107
513.312	105
513.794	124
514.276	106
514.759	99
515.241	118
515.723	108
516.206	44
516.688	57
517.17	111
517.653	109
518.135	104
518.618	93
519.1	89
519.583	55
520.065	79
520.548	101
521.031	52
521.513	37
521.996	94
522.479	86
522.962	106
523.445	95
523.927	97
524.41	90
524.893	89
525.376	80
525.859	95
526.343	89
526.826	58
527.309	41
527.792	99
528.275	79
528.759	94
529.242	85
529.725	92
530.209	54
530.692	32
531.175	89
531.659	51
532.142	81
532.626	102
533.11	88
533.593	64
534.077	91
534.561	99
535.044	109
535.528	82
536.012	113
536.496	84
536.98	103
537.464	103
537.948	100
538.432	95
538.916	127
539.4	134
539.884	138
540.368	136
540.852	173
541.336	156
541.821	189
542.305	202
542.789	194
543.274	181
543.758	210
544.243	218
544.727	226
545.211	208
545.696	220
546.181	214
546.665	182
547.15	147
547.635	176
548.119	117
548.604	110
549.089	129
549.574	138
550.059	107
550.543	115
551.028	117
551.513	67
551.998	95
552.483	91
552.968	101
553.454	65
553.939	106
554.424	108
554.909	80
555.394	82
555.88	87
556.365	88
556.85	81
557.336	93
557.821	90
558.307	100
558.792	71
559.278	90
559.763	55
560.249	89
560.735	83
561.22	71
561.706	105
562.192	89
562.677	93
563.163	89
563.649	104
564.135	84
564.621	79
565.107	75
565.593	77
566.079	65
566.565	93
567.051	68
567.537	86
568.023	80
568.51	101
568.996	110
569.482	91
569.968	127
570.455	125
570.941	122
571.428	123
571.914	122
572.4	150
572.887	137
573.374	137
573.86	143
574.347	153
574.833	133
575.32	111
575.807	177
576.294	177
576.78	171
577.267	171
577.754	180
578.241	184
578.728	172
579.215	157
579.702	184.5
580.189	212
580.676	172
581.163	207
581.65	173
582.137	206
582.625	205.5
583.112	205
583.599	212
584.086	179
584.574	194
585.061	209
585.548	216
586.036	212
586.523	178
587.011	198
587.498	207
587.986	184
588.474	181
588.961	180
589.449	159
589.937	93
590.424	151
590.912	167
591.4	147
591.888	149
592.376	145
592.864	106
593.352	165
593.84	151
594.328	157
594.816	159
595.304	170
595.792	140
596.28	121
596.768	148
597.256	143
597.745	141
598.233	133
598.721	101
599.209	136
599.698	156
600.186	154
600.675	128
601.163	149
601.652	148
602.14	152
602.629	129
603.117	117
603.606	134
604.095	147
604.583	80
605.072	153
605.561	159
606.05	121
606.539	145
607.028	158
607.516	118
608.005	200
608.494	228
608.983	234
609.472	275
609.961	234
610.451	281
610.94	298
611.429	309
611.918	301
612.407	310
612.897	272.5
613.386	235
613.875	237
614.365	203
614.854	211
615.343	169
615.833	195
616.322	174
616.812	158
617.301	156
617.791	163
618.281	96
618.77	140
619.26	149
619.75	115
620.24	125
620.729	136
621.219	140.5
621.709	145
622.199	135
622.689	139
623.179	103
623.669	127
624.159	100
624.649	104
625.139	80
625.629	112
626.119	123
626.609	93
627.099	114
627.59	103
628.08	106
628.57	100
629.061	120
629.551	107
630.041	103
630.532	92
631.022	101
631.513	94
632.003	83
632.494	-14
632.984	81
633.475	78
633.966	78
634.456	64
634.947	66
635.438	69
635.929	-9
636.419	71
636.91	51
637.401	64
637.892	66
638.383	75
638.874	33
639.365	-10
639.856	77
640.347	50
640.838	51
641.329	-19
641.82	43
642.311	74
642.803	59
643.294	51
643.785	71
644.277	71
644.768	32
645.259	59
645.751	54
646.242	32
646.734	80
647.225	69
647.717	60
648.208	65
648.7	82
649.191	69
649.683	70
650.175	57
650.666	90
651.158	58
651.65	55
652.142	83
652.633	102
653.125	119
653.617	116
654.109	126
654.601	149
655.093	141
655.585	123
656.077	134
656.569	133
657.061	140
657.553	125
658.046	77
658.538	67
659.03	31
659.522	92
660.015	43
660.507	48
660.999	61
661.492	66
661.984	43
662.476	66
662.969	55
663.461	62
663.954	60
664.446	42
664.939	56
665.432	70
665.924	49
666.417	70
666.91	40
667.402	75
667.895	60
668.388	42
668.881	73
